# Energy(keV)	Counts
0.000000 1056.000000
0.009770 975.000000
0.019541 1040.000000
0.029311 965.000000
0.039082 993.000000
0.048852 973.000000
0.058622 1049.000000
0.068393 988.000000
0.078163 949.000000
0.087934 953.000000
0.097704 1012.000000
0.107474 965.000000
0.117245 1003.000000
0.127015 977.000000
0.136786 1018.000000
0.146556 1056.000000
0.156326 947.000000
0.166097 1016.000000
0.175867 1042.000000
0.185638 1002.000000
0.195408 998.000000
0.205178 967.000000
0.214949 1024.000000
0.224719 946.000000
0.234489 946.000000
0.244260 950.000000
0.254030 954.000000
0.263801 1001.000000
0.273571 1032.000000
0.283341 957.000000
0.293112 985.000000
0.302882 971.000000
0.312653 944.000000
0.322423 963.000000
0.332193 921.000000
0.341964 948.000000
0.351734 1008.000000
0.361505 972.000000
0.371275 887.000000
0.381045 977.000000
0.390816 875.000000
0.400586 966.000000
0.410357 886.000000
0.420127 956.000000
0.429897 951.000000
0.439668 936.000000
0.449438 956.000000
0.459209 874.000000
0.468979 852.000000
0.478749 909.000000
0.488520 921.000000
0.498290 891.000000
0.508061 939.000000
0.517831 895.000000
0.527601 946.000000
0.537372 910.000000
0.547142 958.000000
0.556913 984.000000
0.566683 883.000000
0.576453 869.000000
0.586224 907.000000
0.595994 904.000000
0.605765 859.000000
0.615535 828.000000
0.625305 901.000000
0.635076 908.000000
0.644846 932.000000
0.654617 873.000000
0.664387 904.000000
0.674157 894.000000
0.683928 860.000000
0.693698 893.000000
0.703468 864.000000
0.713239 881.000000
0.723009 818.000000
0.732780 861.000000
0.742550 912.000000
0.752320 892.000000
0.762091 893.000000
0.771861 843.000000
0.781632 863.000000
0.791402 829.000000
0.801172 867.000000
0.810943 908.000000
0.820713 867.000000
0.830484 897.000000
0.840254 870.000000
0.850024 849.000000
0.859795 825.000000
0.869565 825.000000
0.879336 875.000000
0.889106 878.000000
0.898876 863.000000
0.908647 860.000000
0.918417 844.000000
0.928188 828.000000
0.937958 826.000000
0.947728 876.000000
0.957499 810.000000
0.967269 845.000000
0.977040 869.000000
0.986810 881.000000
0.996580 853.000000
1.006351 834.000000
1.016121 871.000000
1.025892 772.000000
1.035662 817.000000
1.045432 823.000000
1.055203 834.000000
1.064973 828.000000
1.074744 755.000000
1.084514 833.000000
1.094284 780.000000
1.104055 812.000000
1.113825 838.000000
1.123596 800.000000
1.133366 850.000000
1.143136 795.000000
1.152907 783.000000
1.162677 782.000000
1.172447 729.000000
1.182218 833.000000
1.191988 805.000000
1.201759 791.000000
1.211529 809.000000
1.221299 770.000000
1.231070 778.000000
1.240840 791.000000
1.250611 818.000000
1.260381 801.000000
1.270151 724.000000
1.279922 771.000000
1.289692 778.000000
1.299463 767.000000
1.309233 733.000000
1.319003 804.000000
1.328774 805.000000
1.338544 802.000000
1.348315 785.000000
1.358085 838.000000
1.367855 765.000000
1.377626 812.000000
1.387396 803.000000
1.397167 749.000000
1.406937 713.000000
1.416707 766.000000
1.426478 713.000000
1.436248 780.000000
1.446019 773.000000
1.455789 775.000000
1.465559 771.000000
1.475330 749.000000
1.485100 814.000000
1.494871 748.000000
1.504641 726.000000
1.514411 760.000000
1.524182 740.000000
1.533952 713.000000
1.543723 787.000000
1.553493 736.000000
1.563263 766.000000
1.573034 722.000000
1.582804 739.000000
1.592574 700.000000
1.602345 723.000000
1.612115 732.000000
1.621886 741.000000
1.631656 735.000000
1.641426 727.000000
1.651197 751.000000
1.660967 700.000000
1.670738 724.000000
1.680508 696.000000
1.690278 733.000000
1.700049 698.000000
1.709819 713.000000
1.719590 687.000000
1.729360 751.000000
1.739130 716.000000
1.748901 708.000000
1.758671 674.000000
1.768442 708.000000
1.778212 712.000000
1.787982 717.000000
1.797753 727.000000
1.807523 676.000000
1.817294 682.000000
1.827064 681.000000
1.836834 696.000000
1.846605 678.000000
1.856375 741.000000
1.866146 708.000000
1.875916 742.000000
1.885686 686.000000
1.895457 724.000000
1.905227 697.000000
1.914998 681.000000
1.924768 686.000000
1.934538 658.000000
1.944309 646.000000
1.954079 689.000000
1.963850 675.000000
1.973620 681.000000
1.983390 693.000000
1.993161 683.000000
2.002931 701.000000
2.012702 677.000000
2.022472 703.000000
2.032242 644.000000
2.042013 712.000000
2.051783 661.000000
2.061553 631.000000
2.071324 657.000000
2.081094 651.000000
2.090865 664.000000
2.100635 614.000000
2.110405 643.000000
2.120176 648.000000
2.129946 627.000000
2.139717 638.000000
2.149487 664.000000
2.159257 674.000000
2.169028 663.000000
2.178798 665.000000
2.188569 657.000000
2.198339 614.000000
2.208109 645.000000
2.217880 633.000000
2.227650 634.000000
2.237421 628.000000
2.247191 694.000000
2.256961 631.000000
2.266732 652.000000
2.276502 676.000000
2.286273 616.000000
2.296043 618.000000
2.305813 586.000000
2.315584 643.000000
2.325354 631.000000
2.335125 630.000000
2.344895 638.000000
2.354665 638.000000
2.364436 593.000000
2.374206 611.000000
2.383977 620.000000
2.393747 620.000000
2.403517 638.000000
2.413288 616.000000
2.423058 628.000000
2.432829 653.000000
2.442599 605.000000
2.452369 578.000000
2.462140 606.000000
2.471910 587.000000
2.481681 663.000000
2.491451 586.000000
2.501221 638.000000
2.510992 595.000000
2.520762 649.000000
2.530532 592.000000
2.540303 650.000000
2.550073 629.000000
2.559844 605.000000
2.569614 621.000000
2.579384 603.000000
2.589155 594.000000
2.598925 631.000000
2.608696 606.000000
2.618466 586.000000
2.628236 572.000000
2.638007 603.000000
2.647777 614.000000
2.657548 586.000000
2.667318 574.000000
2.677088 580.000000
2.686859 582.000000
2.696629 587.000000
2.706400 591.000000
2.716170 555.000000
2.725940 596.000000
2.735711 573.000000
2.745481 517.000000
2.755252 598.000000
2.765022 585.000000
2.774792 579.000000
2.784563 602.000000
2.794333 597.000000
2.804104 589.000000
2.813874 581.000000
2.823644 590.000000
2.833415 578.000000
2.843185 584.000000
2.852956 571.000000
2.862726 595.000000
2.872496 600.000000
2.882267 616.000000
2.892037 587.000000
2.901808 549.000000
2.911578 562.000000
2.921348 566.000000
2.931119 566.000000
2.940889 592.000000
2.950660 561.000000
2.960430 526.000000
2.970200 560.000000
2.979971 546.000000
2.989741 556.000000
2.999511 539.000000
3.009282 554.000000
3.019052 522.000000
3.028823 540.000000
3.038593 558.000000
3.048363 571.000000
3.058134 574.000000
3.067904 547.000000
3.077675 536.000000
3.087445 557.000000
3.097215 544.000000
3.106986 483.000000
3.116756 548.000000
3.126527 524.000000
3.136297 547.000000
3.146067 541.000000
3.155838 585.000000
3.165608 532.000000
3.175379 525.000000
3.185149 502.000000
3.194919 505.000000
3.204690 588.000000
3.214460 544.000000
3.224231 507.000000
3.234001 530.000000
3.243771 498.000000
3.253542 536.000000
3.263312 525.000000
3.273083 544.000000
3.282853 554.000000
3.292623 501.000000
3.302394 554.000000
3.312164 566.000000
3.321935 548.000000
3.331705 523.000000
3.341475 538.000000
3.351246 519.000000
3.361016 534.000000
3.370787 517.000000
3.380557 523.000000
3.390327 555.000000
3.400098 531.000000
3.409868 504.000000
3.419638 547.000000
3.429409 497.000000
3.439179 468.000000
3.448950 479.000000
3.458720 546.000000
3.468490 508.000000
3.478261 520.000000
3.488031 477.000000
3.497802 571.000000
3.507572 509.000000
3.517342 521.000000
3.527113 521.000000
3.536883 508.000000
3.546654 468.000000
3.556424 538.000000
3.566194 509.000000
3.575965 450.000000
3.585735 500.000000
3.595506 496.000000
3.605276 496.000000
3.615046 478.000000
3.624817 502.000000
3.634587 524.000000
3.644358 502.000000
3.654128 507.000000
3.663898 441.000000
3.673669 515.000000
3.683439 471.000000
3.693210 505.000000
3.702980 460.000000
3.712750 509.000000
3.722521 524.000000
3.732291 453.000000
3.742062 506.000000
3.751832 507.000000
3.761602 467.000000
3.771373 467.000000
3.781143 510.000000
3.790914 480.000000
3.800684 474.000000
3.810454 475.000000
3.820225 482.000000
3.829995 485.000000
3.839766 481.000000
3.849536 457.000000
3.859306 461.000000
3.869077 456.000000
3.878847 456.000000
3.888617 459.000000
3.898388 478.000000
3.908158 440.000000
3.917929 454.000000
3.927699 484.000000
3.937469 450.000000
3.947240 496.000000
3.957010 451.000000
3.966781 473.000000
3.976551 474.000000
3.986321 446.000000
3.996092 465.000000
4.005862 431.000000
4.015633 431.000000
4.025403 479.000000
4.035173 427.000000
4.044944 488.000000
4.054714 452.000000
4.064485 433.000000
4.074255 470.000000
4.084025 480.000000
4.093796 421.000000
4.103566 484.000000
4.113337 432.000000
4.123107 444.000000
4.132877 410.000000
4.142648 449.000000
4.152418 460.000000
4.162189 435.000000
4.171959 441.000000
4.181729 441.000000
4.191500 449.000000
4.201270 451.000000
4.211041 387.000000
4.220811 432.000000
4.230581 439.000000
4.240352 461.000000
4.250122 472.000000
4.259893 436.000000
4.269663 431.000000
4.279433 404.000000
4.289204 426.000000
4.298974 438.000000
4.308745 451.000000
4.318515 433.000000
4.328285 436.000000
4.338056 420.000000
4.347826 390.000000
4.357596 464.000000
4.367367 452.000000
4.377137 447.000000
4.386908 408.000000
4.396678 397.000000
4.406448 415.000000
4.416219 421.000000
4.425989 431.000000
4.435760 397.000000
4.445530 426.000000
4.455300 424.000000
4.465071 403.000000
4.474841 434.000000
4.484612 399.000000
4.494382 430.000000
4.504152 427.000000
4.513923 379.000000
4.523693 364.000000
4.533464 399.000000
4.543234 423.000000
4.553004 405.000000
4.562775 427.000000
4.572545 402.000000
4.582316 401.000000
4.592086 443.000000
4.601856 404.000000
4.611627 432.000000
4.621397 408.000000
4.631168 383.000000
4.640938 416.000000
4.650708 434.000000
4.660479 394.000000
4.670249 414.000000
4.680020 418.000000
4.689790 442.000000
4.699560 394.000000
4.709331 396.000000
4.719101 393.000000
4.728872 373.000000
4.738642 404.000000
4.748412 405.000000
4.758183 405.000000
4.767953 382.000000
4.777723 387.000000
4.787494 387.000000
4.797264 407.000000
4.807035 398.000000
4.816805 388.000000
4.826575 423.000000
4.836346 389.000000
4.846116 384.000000
4.855887 389.000000
4.865657 439.000000
4.875427 416.000000
4.885198 397.000000
4.894968 412.000000
4.904739 378.000000
4.914509 369.000000
4.924279 373.000000
4.934050 357.000000
4.943820 394.000000
4.953591 403.000000
4.963361 404.000000
4.973131 370.000000
4.982902 404.000000
4.992672 363.000000
5.002443 379.000000
5.012213 366.000000
5.021983 362.000000
5.031754 417.000000
5.041524 359.000000
5.051295 374.000000
5.061065 352.000000
5.070835 382.000000
5.080606 362.000000
5.090376 372.000000
5.100147 393.000000
5.109917 375.000000
5.119687 383.000000
5.129458 389.000000
5.139228 360.000000
5.148999 380.000000
5.158769 357.000000
5.168539 361.000000
5.178310 371.000000
5.188080 358.000000
5.197851 391.000000
5.207621 375.000000
5.217391 363.000000
5.227162 390.000000
5.236932 327.000000
5.246702 348.000000
5.256473 358.000000
5.266243 333.000000
5.276014 371.000000
5.285784 371.000000
5.295554 385.000000
5.305325 343.000000
5.315095 354.000000
5.324866 356.000000
5.334636 320.000000
5.344406 350.000000
5.354177 368.000000
5.363947 337.000000
5.373718 361.000000
5.383488 363.000000
5.393258 364.000000
5.403029 332.000000
5.412799 343.000000
5.422570 363.000000
5.432340 314.000000
5.442110 351.000000
5.451881 316.000000
5.461651 351.000000
5.471422 351.000000
5.481192 347.000000
5.490962 338.000000
5.500733 334.000000
5.510503 328.000000
5.520274 336.000000
5.530044 343.000000
5.539814 321.000000
5.549585 326.000000
5.559355 347.000000
5.569126 320.000000
5.578896 339.000000
5.588666 343.000000
5.598437 310.000000
5.608207 350.000000
5.617978 335.000000
5.627748 339.000000
5.637518 319.000000
5.647289 288.000000
5.657059 324.000000
5.666830 353.000000
5.676600 294.000000
5.686370 348.000000
5.696141 327.000000
5.705911 327.000000
5.715681 310.000000
5.725452 353.000000
5.735222 323.000000
5.744993 346.000000
5.754763 332.000000
5.764533 303.000000
5.774304 304.000000
5.784074 306.000000
5.793845 363.000000
5.803615 363.000000
5.813385 305.000000
5.823156 340.000000
5.832926 317.000000
5.842697 309.000000
5.852467 341.000000
5.862237 325.000000
5.872008 320.000000
5.881778 318.000000
5.891549 299.000000
5.901319 340.000000
5.911089 318.000000
5.920860 344.000000
5.930630 336.000000
5.940401 322.000000
5.950171 332.000000
5.959941 309.000000
5.969712 304.000000
5.979482 329.000000
5.989253 273.000000
5.999023 297.000000
6.008793 292.000000
6.018564 299.000000
6.028334 309.000000
6.038105 303.000000
6.047875 300.000000
6.057645 291.000000
6.067416 297.000000
6.077186 319.000000
6.086957 291.000000
6.096727 271.000000
6.106497 281.000000
6.116268 305.000000
6.126038 298.000000
6.135809 334.000000
6.145579 336.000000
6.155349 318.000000
6.165120 318.000000
6.174890 338.000000
6.184660 295.000000
6.194431 321.000000
6.204201 337.000000
6.213972 301.000000
6.223742 288.000000
6.233512 300.000000
6.243283 297.000000
6.253053 316.000000
6.262824 301.000000
6.272594 308.000000
6.282364 296.000000
6.292135 309.000000
6.301905 286.000000
6.311676 304.000000
6.321446 292.000000
6.331216 326.000000
6.340987 291.000000
6.350757 272.000000
6.360528 312.000000
6.370298 296.000000
6.380068 336.000000
6.389839 278.000000
6.399609 288.000000
6.409380 303.000000
6.419150 248.000000
6.428920 296.000000
6.438691 285.000000
6.448461 337.000000
6.458232 307.000000
6.468002 263.000000
6.477772 344.000000
6.487543 271.000000
6.497313 273.000000
6.507084 291.000000
6.516854 277.000000
6.526624 304.000000
6.536395 307.000000
6.546165 303.000000
6.555936 283.000000
6.565706 294.000000
6.575476 275.000000
6.585247 302.000000
6.595017 300.000000
6.604787 306.000000
6.614558 281.000000
6.624328 312.000000
6.634099 264.000000
6.643869 283.000000
6.653639 292.000000
6.663410 285.000000
6.673180 277.000000
6.682951 270.000000
6.692721 277.000000
6.702491 268.000000
6.712262 262.000000
6.722032 307.000000
6.731803 293.000000
6.741573 276.000000
6.751343 277.000000
6.761114 300.000000
6.770884 306.000000
6.780655 308.000000
6.790425 286.000000
6.800195 314.000000
6.809966 271.000000
6.819736 266.000000
6.829507 257.000000
6.839277 296.000000
6.849047 282.000000
6.858818 276.000000
6.868588 262.000000
6.878359 294.000000
6.888129 263.000000
6.897899 317.000000
6.907670 252.000000
6.917440 277.000000
6.927211 266.000000
6.936981 282.000000
6.946751 303.000000
6.956522 256.000000
6.966292 292.000000
6.976063 307.000000
6.985833 267.000000
6.995603 287.000000
7.005374 283.000000
7.015144 256.000000
7.024915 250.000000
7.034685 254.000000
7.044455 283.000000
7.054226 277.000000
7.063996 255.000000
7.073766 273.000000
7.083537 279.000000
7.093307 297.000000
7.103078 290.000000
7.112848 269.000000
7.122618 297.000000
7.132389 271.000000
7.142159 304.000000
7.151930 275.000000
7.161700 259.000000
7.171470 271.000000
7.181241 268.000000
7.191011 273.000000
7.200782 280.000000
7.210552 258.000000
7.220322 288.000000
7.230093 303.000000
7.239863 273.000000
7.249634 279.000000
7.259404 272.000000
7.269174 278.000000
7.278945 274.000000
7.288715 272.000000
7.298486 253.000000
7.308256 281.000000
7.318026 303.000000
7.327797 277.000000
7.337567 284.000000
7.347338 254.000000
7.357108 253.000000
7.366878 269.000000
7.376649 288.000000
7.386419 277.000000
7.396190 285.000000
7.405960 318.000000
7.415730 283.000000
7.425501 277.000000
7.435271 283.000000
7.445042 276.000000
7.454812 245.000000
7.464582 264.000000
7.474353 262.000000
7.484123 247.000000
7.493894 278.000000
7.503664 282.000000
7.513434 283.000000
7.523205 287.000000
7.532975 269.000000
7.542745 287.000000
7.552516 269.000000
7.562286 264.000000
7.572057 279.000000
7.581827 263.000000
7.591597 291.000000
7.601368 289.000000
7.611138 299.000000
7.620909 275.000000
7.630679 279.000000
7.640449 324.000000
7.650220 281.000000
7.659990 295.000000
7.669761 297.000000
7.679531 265.000000
7.689301 292.000000
7.699072 257.000000
7.708842 274.000000
7.718613 270.000000
7.728383 301.000000
7.738153 263.000000
7.747924 274.000000
7.757694 301.000000
7.767465 270.000000
7.777235 265.000000
7.787005 269.000000
7.796776 253.000000
7.806546 300.000000
7.816317 287.000000
7.826087 300.000000
7.835857 276.000000
7.845628 298.000000
7.855398 308.000000
7.865169 352.000000
7.874939 356.000000
7.884709 399.000000
7.894480 441.000000
7.904250 528.000000
7.914021 608.000000
7.923791 751.000000
7.933561 870.000000
7.943332 1058.000000
7.953102 1301.000000
7.962872 1523.000000
7.972643 1791.000000
7.982413 2111.000000
7.992184 2342.000000
8.001954 2617.000000
8.011724 2826.000000
8.021495 3058.000000
8.031265 3277.000000
8.041036 3209.000000
8.050806 3212.000000
8.060576 3248.000000
8.070347 3114.000000
8.080117 2889.000000
8.089888 2644.000000
8.099658 2381.000000
8.109428 2102.000000
8.119199 1963.000000
8.128969 1671.000000
8.138740 1370.000000
8.148510 1213.000000
8.158280 935.000000
8.168051 811.000000
8.177821 710.000000
8.187592 533.000000
8.197362 540.000000
8.207132 447.000000
8.216903 383.000000
8.226673 344.000000
8.236444 343.000000
8.246214 312.000000
8.255984 316.000000
8.265755 319.000000
8.275525 320.000000
8.285296 303.000000
8.295066 289.000000
8.304836 311.000000
8.314607 307.000000
8.324377 292.000000
8.334148 282.000000
8.343918 318.000000
8.353688 286.000000
8.363459 312.000000
8.373229 302.000000
8.383000 287.000000
8.392770 292.000000
8.402540 319.000000
8.412311 304.000000
8.422081 324.000000
8.431851 303.000000
8.441622 335.000000
8.451392 332.000000
8.461163 371.000000
8.470933 396.000000
8.480703 405.000000
8.490474 507.000000
8.500244 533.000000
8.510015 612.000000
8.519785 751.000000
8.529555 901.000000
8.539326 1037.000000
8.549096 1216.000000
8.558867 1419.000000
8.568637 1678.000000
8.578407 1882.000000
8.588178 2062.000000
8.597948 2287.000000
8.607719 2570.000000
8.617489 2630.000000
8.627259 2808.000000
8.637030 2818.000000
8.646800 2784.000000
8.656571 2787.000000
8.666341 2566.000000
8.676111 2440.000000
8.685882 2239.000000
8.695652 1978.000000
8.705423 1782.000000
8.715193 1458.000000
8.724963 1357.000000
8.734734 1144.000000
8.744504 935.000000
8.754275 844.000000
8.764045 736.000000
8.773815 636.000000
8.783586 620.000000
8.793356 563.000000
8.803127 589.000000
8.812897 606.000000
8.822667 596.000000
8.832438 699.000000
8.842208 738.000000
8.851979 818.000000
8.861749 821.000000
8.871519 856.000000
8.881290 909.000000
8.891060 889.000000
8.900830 913.000000
8.910601 926.000000
8.920371 946.000000
8.930142 873.000000
8.939912 831.000000
8.949682 823.000000
8.959453 729.000000
8.969223 681.000000
8.978994 641.000000
8.988764 567.000000
8.998534 532.000000
9.008305 495.000000
9.018075 465.000000
9.027846 377.000000
9.037616 425.000000
9.047386 411.000000
9.057157 364.000000
9.066927 358.000000
9.076698 338.000000
9.086468 392.000000
9.096238 352.000000
9.106009 362.000000
9.115779 302.000000
9.125550 349.000000
9.135320 334.000000
9.145090 354.000000
9.154861 343.000000
9.164631 369.000000
9.174402 331.000000
9.184172 345.000000
9.193942 341.000000
9.203713 341.000000
9.213483 332.000000
9.223254 348.000000
9.233024 333.000000
9.242794 340.000000
9.252565 325.000000
9.262335 350.000000
9.272106 359.000000
9.281876 337.000000
9.291646 353.000000
9.301417 346.000000
9.311187 351.000000
9.320957 375.000000
9.330728 337.000000
9.340498 316.000000
9.350269 368.000000
9.360039 378.000000
9.369809 407.000000
9.379580 373.000000
9.389350 357.000000
9.399121 362.000000
9.408891 400.000000
9.418661 358.000000
9.428432 367.000000
9.438202 361.000000
9.447973 422.000000
9.457743 450.000000
9.467513 469.000000
9.477284 536.000000
9.487054 594.000000
9.496825 595.000000
9.506595 660.000000
9.516365 641.000000
9.526136 745.000000
9.535906 724.000000
9.545677 770.000000
9.555447 889.000000
9.565217 791.000000
9.574988 846.000000
9.584758 806.000000
9.594529 805.000000
9.604299 793.000000
9.614069 730.000000
9.623840 668.000000
9.633610 664.000000
9.643381 606.000000
9.653151 535.000000
9.662921 527.000000
9.672692 509.000000
9.682462 442.000000
9.692233 427.000000
9.702003 403.000000
9.711773 429.000000
9.721544 377.000000
