# Energy(keV)	Counts
0.000000 1048.000000
0.009770 969.000000
0.019541 964.000000
0.029311 945.000000
0.039082 993.000000
0.048852 960.000000
0.058622 1030.000000
0.068393 1048.000000
0.078163 1013.000000
0.087934 975.000000
0.097704 1003.000000
0.107474 968.000000
0.117245 980.000000
0.127015 990.000000
0.136786 1005.000000
0.146556 983.000000
0.156326 963.000000
0.166097 1009.000000
0.175867 996.000000
0.185638 947.000000
0.195408 913.000000
0.205178 1044.000000
0.214949 995.000000
0.224719 1019.000000
0.234489 955.000000
0.244260 989.000000
0.254030 977.000000
0.263801 949.000000
0.273571 900.000000
0.283341 956.000000
0.293112 927.000000
0.302882 957.000000
0.312653 1008.000000
0.322423 1111.000000
0.332193 1143.000000
0.341964 1121.000000
0.351734 1119.000000
0.361505 1066.000000
0.371275 1004.000000
0.381045 1011.000000
0.390816 945.000000
0.400586 951.000000
0.410357 953.000000
0.420127 1041.000000
0.429897 1112.000000
0.439668 1242.000000
0.449438 1404.000000
0.459209 1364.000000
0.468979 1272.000000
0.478749 1118.000000
0.488520 990.000000
0.498290 938.000000
0.508061 1009.000000
0.517831 901.000000
0.527601 933.000000
0.537372 976.000000
0.547142 934.000000
0.556913 961.000000
0.566683 915.000000
0.576453 902.000000
0.586224 886.000000
0.595994 943.000000
0.605765 923.000000
0.615535 923.000000
0.625305 843.000000
0.635076 848.000000
0.644846 923.000000
0.654617 954.000000
0.664387 1078.000000
0.674157 1242.000000
0.683928 1493.000000
0.693698 1822.000000
0.703468 1971.000000
0.713239 2038.000000
0.723009 1830.000000
0.732780 1492.000000
0.742550 1318.000000
0.752320 1068.000000
0.762091 998.000000
0.771861 929.000000
0.781632 1022.000000
0.791402 1000.000000
0.801172 952.000000
0.810943 973.000000
0.820713 910.000000
0.830484 876.000000
0.840254 941.000000
0.850024 889.000000
0.859795 928.000000
0.869565 825.000000
0.879336 854.000000
0.889106 831.000000
0.898876 853.000000
0.908647 822.000000
0.918417 828.000000
0.928188 816.000000
0.937958 896.000000
0.947728 845.000000
0.957499 848.000000
0.967269 844.000000
0.977040 861.000000
0.986810 859.000000
0.996580 821.000000
1.006351 820.000000
1.016121 777.000000
1.025892 792.000000
1.035662 855.000000
1.045432 794.000000
1.055203 831.000000
1.064973 850.000000
1.074744 828.000000
1.084514 847.000000
1.094284 817.000000
1.104055 792.000000
1.113825 827.000000
1.123596 777.000000
1.133366 851.000000
1.143136 803.000000
1.152907 824.000000
1.162677 836.000000
1.172447 776.000000
1.182218 798.000000
1.191988 778.000000
1.201759 770.000000
1.211529 805.000000
1.221299 812.000000
1.231070 779.000000
1.240840 814.000000
1.250611 767.000000
1.260381 790.000000
1.270151 798.000000
1.279922 830.000000
1.289692 791.000000
1.299463 799.000000
1.309233 724.000000
1.319003 787.000000
1.328774 804.000000
1.338544 736.000000
1.348315 782.000000
1.358085 748.000000
1.367855 803.000000
1.377626 746.000000
1.387396 730.000000
1.397167 766.000000
1.406937 762.000000
1.416707 730.000000
1.426478 771.000000
1.436248 755.000000
1.446019 749.000000
1.455789 771.000000
1.465559 715.000000
1.475330 778.000000
1.485100 735.000000
1.494871 708.000000
1.504641 795.000000
1.514411 722.000000
1.524182 743.000000
1.533952 731.000000
1.543723 687.000000
1.553493 690.000000
1.563263 727.000000
1.573034 728.000000
1.582804 793.000000
1.592574 770.000000
1.602345 737.000000
1.612115 768.000000
1.621886 691.000000
1.631656 742.000000
1.641426 750.000000
1.651197 674.000000
1.660967 735.000000
1.670738 771.000000
1.680508 800.000000
1.690278 696.000000
1.700049 752.000000
1.709819 740.000000
1.719590 654.000000
1.729360 761.000000
1.739130 704.000000
1.748901 689.000000
1.758671 695.000000
1.768442 758.000000
1.778212 677.000000
1.787982 716.000000
1.797753 706.000000
1.807523 672.000000
1.817294 730.000000
1.827064 722.000000
1.836834 712.000000
1.846605 721.000000
1.856375 719.000000
1.866146 732.000000
1.875916 693.000000
1.885686 724.000000
1.895457 660.000000
1.905227 692.000000
1.914998 723.000000
1.924768 669.000000
1.934538 663.000000
1.944309 654.000000
1.954079 679.000000
1.963850 667.000000
1.973620 677.000000
1.983390 720.000000
1.993161 689.000000
2.002931 693.000000
2.012702 656.000000
2.022472 663.000000
2.032242 691.000000
2.042013 647.000000
2.051783 654.000000
2.061553 666.000000
2.071324 720.000000
2.081094 643.000000
2.090865 652.000000
2.100635 644.000000
2.110405 648.000000
2.120176 648.000000
2.129946 644.000000
2.139717 702.000000
2.149487 653.000000
2.159257 660.000000
2.169028 618.000000
2.178798 633.000000
2.188569 666.000000
2.198339 663.000000
2.208109 641.000000
2.217880 716.000000
2.227650 673.000000
2.237421 630.000000
2.247191 632.000000
2.256961 601.000000
2.266732 633.000000
2.276502 617.000000
2.286273 639.000000
2.296043 675.000000
2.305813 668.000000
2.315584 626.000000
2.325354 647.000000
2.335125 690.000000
2.344895 569.000000
2.354665 583.000000
2.364436 615.000000
2.374206 619.000000
2.383977 648.000000
2.393747 654.000000
2.403517 619.000000
2.413288 606.000000
2.423058 627.000000
2.432829 623.000000
2.442599 637.000000
2.452369 631.000000
2.462140 631.000000
2.471910 642.000000
2.481681 645.000000
2.491451 614.000000
2.501221 595.000000
2.510992 599.000000
2.520762 583.000000
2.530532 591.000000
2.540303 621.000000
2.550073 595.000000
2.559844 596.000000
2.569614 624.000000
2.579384 622.000000
2.589155 611.000000
2.598925 583.000000
2.608696 595.000000
2.618466 613.000000
2.628236 576.000000
2.638007 616.000000
2.647777 598.000000
2.657548 644.000000
2.667318 591.000000
2.677088 587.000000
2.686859 549.000000
2.696629 581.000000
2.706400 614.000000
2.716170 610.000000
2.725940 595.000000
2.735711 537.000000
2.745481 611.000000
2.755252 590.000000
2.765022 616.000000
2.774792 557.000000
2.784563 622.000000
2.794333 575.000000
2.804104 542.000000
2.813874 565.000000
2.823644 560.000000
2.833415 567.000000
2.843185 575.000000
2.852956 578.000000
2.862726 614.000000
2.872496 568.000000
2.882267 572.000000
2.892037 575.000000
2.901808 558.000000
2.911578 562.000000
2.921348 519.000000
2.931119 552.000000
2.940889 583.000000
2.950660 542.000000
2.960430 584.000000
2.970200 563.000000
2.979971 580.000000
2.989741 579.000000
2.999511 551.000000
3.009282 548.000000
3.019052 572.000000
3.028823 555.000000
3.038593 570.000000
3.048363 577.000000
3.058134 537.000000
3.067904 571.000000
3.077675 546.000000
3.087445 539.000000
3.097215 538.000000
3.106986 521.000000
3.116756 541.000000
3.126527 545.000000
3.136297 562.000000
3.146067 552.000000
3.155838 560.000000
3.165608 559.000000
3.175379 566.000000
3.185149 535.000000
3.194919 558.000000
3.204690 545.000000
3.214460 570.000000
3.224231 536.000000
3.234001 556.000000
3.243771 525.000000
3.253542 543.000000
3.263312 514.000000
3.273083 569.000000
3.282853 524.000000
3.292623 521.000000
3.302394 493.000000
3.312164 559.000000
3.321935 526.000000
3.331705 535.000000
3.341475 537.000000
3.351246 525.000000
3.361016 548.000000
3.370787 536.000000
3.380557 549.000000
3.390327 558.000000
3.400098 531.000000
3.409868 540.000000
3.419638 520.000000
3.429409 557.000000
3.439179 541.000000
3.448950 522.000000
3.458720 580.000000
3.468490 534.000000
3.478261 543.000000
3.488031 531.000000
3.497802 552.000000
3.507572 616.000000
3.517342 584.000000
3.527113 610.000000
3.536883 589.000000
3.546654 593.000000
3.556424 596.000000
3.566194 723.000000
3.575965 786.000000
3.585735 906.000000
3.595506 1091.000000
3.605276 1417.000000
3.615046 1909.000000
3.624817 2601.000000
3.634587 3592.000000
3.644358 4382.000000
3.654128 5616.000000
3.663898 6586.000000
3.673669 7507.000000
3.683439 8010.000000
3.693210 8061.000000
3.702980 7849.000000
3.712750 6996.000000
3.722521 5950.000000
3.732291 4818.000000
3.742062 3736.000000
3.751832 2967.000000
3.761602 2078.000000
3.771373 1561.000000
3.781143 1182.000000
3.790914 918.000000
3.800684 791.000000
3.810454 679.000000
3.820225 620.000000
3.829995 559.000000
3.839766 573.000000
3.849536 578.000000
3.859306 541.000000
3.869077 505.000000
3.878847 527.000000
3.888617 563.000000
3.898388 538.000000
3.908158 520.000000
3.917929 592.000000
3.927699 611.000000
3.937469 693.000000
3.947240 727.000000
3.957010 832.000000
3.966781 951.000000
3.976551 991.000000
3.986321 1113.000000
3.996092 1258.000000
4.005862 1195.000000
4.015633 1235.000000
4.025403 1212.000000
4.035173 1198.000000
4.044944 1069.000000
4.054714 972.000000
4.064485 837.000000
4.074255 742.000000
4.084025 649.000000
4.093796 571.000000
4.103566 541.000000
4.113337 458.000000
4.123107 502.000000
4.132877 509.000000
4.142648 480.000000
4.152418 451.000000
4.162189 466.000000
4.171959 453.000000
4.181729 479.000000
4.191500 469.000000
4.201270 462.000000
4.211041 437.000000
4.220811 472.000000
4.230581 485.000000
4.240352 438.000000
4.250122 488.000000
4.259893 458.000000
4.269663 456.000000
4.279433 501.000000
4.289204 467.000000
4.298974 454.000000
4.308745 498.000000
4.318515 477.000000
4.328285 495.000000
4.338056 491.000000
4.347826 519.000000
4.357596 521.000000
4.367367 537.000000
4.377137 605.000000
4.386908 668.000000
4.396678 777.000000
4.406448 1012.000000
4.416219 1217.000000
4.425989 1607.000000
4.435760 2209.000000
4.445530 2795.000000
4.455300 3663.000000
4.465071 4580.000000
4.474841 5423.000000
4.484612 6270.000000
4.494382 6759.000000
4.504152 7074.000000
4.513923 6900.000000
4.523693 6620.000000
4.533464 6044.000000
4.543234 5237.000000
4.553004 4362.000000
4.562775 3575.000000
4.572545 2726.000000
4.582316 2123.000000
4.592086 1507.000000
4.601856 1239.000000
4.611627 911.000000
4.621397 774.000000
4.631168 633.000000
4.640938 606.000000
4.650708 530.000000
4.660479 490.000000
4.670249 526.000000
4.680020 464.000000
4.689790 436.000000
4.699560 464.000000
4.709331 413.000000
4.719101 484.000000
4.728872 442.000000
4.738642 439.000000
4.748412 443.000000
4.758183 416.000000
4.767953 411.000000
4.777723 411.000000
4.787494 412.000000
4.797264 444.000000
4.807035 445.000000
4.816805 450.000000
4.826575 493.000000
4.836346 525.000000
4.846116 530.000000
4.855887 608.000000
4.865657 634.000000
4.875427 761.000000
4.885198 855.000000
4.894968 832.000000
4.904739 994.000000
4.914509 1021.000000
4.924279 1140.000000
4.934050 1104.000000
4.943820 1077.000000
4.953591 1020.000000
4.963361 981.000000
4.973131 889.000000
4.982902 780.000000
4.992672 669.000000
5.002443 620.000000
5.012213 542.000000
5.021983 451.000000
5.031754 461.000000
5.041524 410.000000
5.051295 422.000000
5.061065 388.000000
5.070835 399.000000
5.080606 410.000000
5.090376 390.000000
5.100147 392.000000
5.109917 432.000000
5.119687 370.000000
5.129458 390.000000
5.139228 407.000000
5.148999 349.000000
5.158769 376.000000
5.168539 348.000000
5.178310 405.000000
5.188080 374.000000
5.197851 390.000000
5.207621 383.000000
5.217391 372.000000
5.227162 336.000000
5.236932 377.000000
5.246702 391.000000
5.256473 355.000000
5.266243 349.000000
5.276014 385.000000
5.285784 374.000000
5.295554 372.000000
5.305325 353.000000
5.315095 378.000000
5.324866 394.000000
5.334636 371.000000
5.344406 337.000000
5.354177 365.000000
5.363947 364.000000
5.373718 379.000000
5.383488 373.000000
5.393258 393.000000
5.403029 347.000000
5.412799 348.000000
5.422570 330.000000
5.432340 363.000000
5.442110 346.000000
5.451881 347.000000
5.461651 330.000000
5.471422 367.000000
5.481192 364.000000
5.490962 303.000000
5.500733 336.000000
5.510503 334.000000
5.520274 333.000000
5.530044 316.000000
5.539814 332.000000
5.549585 331.000000
5.559355 345.000000
5.569126 337.000000
5.578896 322.000000
5.588666 345.000000
5.598437 354.000000
5.608207 383.000000
5.617978 309.000000
5.627748 346.000000
5.637518 354.000000
5.647289 365.000000
5.657059 367.000000
5.666830 366.000000
5.676600 366.000000
5.686370 328.000000
5.696141 298.000000
5.705911 334.000000
5.715681 362.000000
5.725452 327.000000
5.735222 369.000000
5.744993 357.000000
5.754763 375.000000
5.764533 329.000000
5.774304 316.000000
5.784074 312.000000
5.793845 342.000000
5.803615 309.000000
5.813385 316.000000
5.823156 311.000000
5.832926 346.000000
5.842697 322.000000
5.852467 289.000000
5.862237 330.000000
5.872008 354.000000
5.881778 352.000000
5.891549 347.000000
5.901319 330.000000
5.911089 310.000000
5.920860 327.000000
5.930630 340.000000
5.940401 328.000000
5.950171 341.000000
5.959941 338.000000
5.969712 336.000000
5.979482 298.000000
5.989253 335.000000
5.999023 353.000000
6.008793 342.000000
6.018564 357.000000
6.028334 323.000000
6.038105 335.000000
6.047875 333.000000
6.057645 328.000000
6.067416 341.000000
6.077186 320.000000
6.086957 363.000000
6.096727 340.000000
6.106497 350.000000
6.116268 325.000000
6.126038 374.000000
6.135809 364.000000
6.145579 346.000000
6.155349 393.000000
6.165120 365.000000
6.174890 390.000000
6.184660 368.000000
6.194431 385.000000
6.204201 383.000000
6.213972 428.000000
6.223742 457.000000
6.233512 524.000000
6.243283 563.000000
6.253053 627.000000
6.262824 807.000000
6.272594 972.000000
6.282364 1232.000000
6.292135 1523.000000
6.301905 2137.000000
6.311676 2790.000000
6.321446 3498.000000
6.331216 4408.000000
6.340987 5510.000000
6.350757 6535.000000
6.360528 7458.000000
6.370298 8428.000000
6.380068 9162.000000
6.389839 9676.000000
6.399609 9816.000000
6.409380 9401.000000
6.419150 9123.000000
6.428920 8092.000000
6.438691 7252.000000
6.448461 6266.000000
6.458232 5160.000000
6.468002 4134.000000
6.477772 3273.000000
6.487543 2538.000000
6.497313 1937.000000
6.507084 1478.000000
6.516854 1126.000000
6.526624 880.000000
6.536395 726.000000
6.546165 661.000000
6.555936 498.000000
6.565706 483.000000
6.575476 425.000000
6.585247 414.000000
6.595017 369.000000
6.604787 384.000000
6.614558 344.000000
6.624328 364.000000
6.634099 365.000000
6.643869 348.000000
6.653639 334.000000
6.663410 354.000000
6.673180 328.000000
6.682951 314.000000
6.692721 324.000000
6.702491 377.000000
6.712262 298.000000
6.722032 311.000000
6.731803 315.000000
6.741573 301.000000
6.751343 340.000000
6.761114 301.000000
6.770884 295.000000
6.780655 288.000000
6.790425 345.000000
6.800195 284.000000
6.809966 295.000000
6.819736 294.000000
6.829507 298.000000
6.839277 340.000000
6.849047 311.000000
6.858818 327.000000
6.868588 326.000000
6.878359 266.000000
6.888129 304.000000
6.897899 332.000000
6.907670 321.000000
6.917440 357.000000
6.927211 344.000000
6.936981 385.000000
6.946751 431.000000
6.956522 455.000000
6.966292 555.000000
6.976063 661.000000
6.985833 669.000000
6.995603 805.000000
7.005374 890.000000
7.015144 1026.000000
7.024915 1113.000000
7.034685 1285.000000
7.044455 1322.000000
7.054226 1364.000000
7.063996 1309.000000
7.073766 1331.000000
7.083537 1233.000000
7.093307 1190.000000
7.103078 1071.000000
7.112848 983.000000
7.122618 810.000000
7.132389 769.000000
7.142159 666.000000
7.151930 516.000000
7.161700 476.000000
7.171470 427.000000
7.181241 400.000000
7.191011 362.000000
7.200782 345.000000
7.210552 315.000000
7.220322 333.000000
7.230093 276.000000
7.239863 270.000000
7.249634 273.000000
7.259404 316.000000
7.269174 299.000000
7.278945 337.000000
7.288715 295.000000
7.298486 311.000000
7.308256 309.000000
7.318026 276.000000
7.327797 285.000000
7.337567 269.000000
7.347338 270.000000
7.357108 303.000000
7.366878 263.000000
7.376649 289.000000
7.386419 287.000000
7.396190 279.000000
7.405960 249.000000
7.415730 266.000000
7.425501 280.000000
7.435271 301.000000
7.445042 258.000000
7.454812 284.000000
7.464582 253.000000
7.474353 271.000000
7.484123 292.000000
7.493894 250.000000
7.503664 250.000000
7.513434 287.000000
7.523205 272.000000
7.532975 284.000000
7.542745 271.000000
7.552516 264.000000
7.562286 293.000000
7.572057 290.000000
7.581827 262.000000
7.591597 289.000000
7.601368 305.000000
7.611138 297.000000
7.620909 310.000000
7.630679 305.000000
7.640449 267.000000
7.650220 248.000000
7.659990 275.000000
7.669761 286.000000
7.679531 263.000000
7.689301 296.000000
7.699072 266.000000
7.708842 298.000000
7.718613 285.000000
7.728383 280.000000
7.738153 273.000000
7.747924 283.000000
7.757694 306.000000
7.767465 292.000000
7.777235 279.000000
7.787005 262.000000
7.796776 266.000000
7.806546 281.000000
7.816317 282.000000
7.826087 311.000000
7.835857 294.000000
7.845628 288.000000
7.855398 274.000000
7.865169 287.000000
7.874939 299.000000
7.884709 268.000000
7.894480 293.000000
7.904250 282.000000
7.914021 284.000000
7.923791 278.000000
7.933561 256.000000
7.943332 309.000000
7.953102 266.000000
7.962872 276.000000
7.972643 265.000000
7.982413 259.000000
7.992184 293.000000
8.001954 302.000000
8.011724 273.000000
8.021495 309.000000
8.031265 285.000000
8.041036 287.000000
8.050806 274.000000
8.060576 283.000000
8.070347 293.000000
8.080117 283.000000
8.089888 269.000000
8.099658 285.000000
8.109428 296.000000
8.119199 299.000000
8.128969 292.000000
8.138740 288.000000
8.148510 296.000000
8.158280 321.000000
8.168051 314.000000
8.177821 320.000000
8.187592 281.000000
8.197362 334.000000
8.207132 280.000000
8.216903 315.000000
8.226673 301.000000
8.236444 300.000000
8.246214 277.000000
8.255984 272.000000
8.265755 286.000000
8.275525 309.000000
8.285296 285.000000
8.295066 328.000000
8.304836 296.000000
8.314607 309.000000
8.324377 304.000000
8.334148 313.000000
8.343918 323.000000
8.353688 288.000000
8.363459 296.000000
8.373229 269.000000
8.383000 288.000000
8.392770 298.000000
8.402540 327.000000
8.412311 299.000000
8.422081 294.000000
8.431851 307.000000
8.441622 325.000000
8.451392 287.000000
8.461163 318.000000
8.470933 279.000000
8.480703 295.000000
8.490474 297.000000
8.500244 324.000000
8.510015 332.000000
8.519785 265.000000
8.529555 295.000000
8.539326 313.000000
8.549096 288.000000
8.558867 315.000000
8.568637 282.000000
8.578407 328.000000
8.588178 297.000000
8.597948 357.000000
8.607719 310.000000
8.617489 309.000000
8.627259 322.000000
8.637030 307.000000
8.646800 329.000000
8.656571 322.000000
8.666341 317.000000
8.676111 312.000000
8.685882 320.000000
8.695652 298.000000
8.705423 302.000000
8.715193 315.000000
8.724963 325.000000
8.734734 338.000000
8.744504 345.000000
8.754275 322.000000
8.764045 318.000000
8.773815 291.000000
8.783586 340.000000
8.793356 317.000000
8.803127 326.000000
8.812897 319.000000
8.822667 306.000000
8.832438 336.000000
8.842208 348.000000
8.851979 330.000000
8.861749 288.000000
8.871519 328.000000
8.881290 335.000000
8.891060 346.000000
8.900830 352.000000
8.910601 344.000000
8.920371 343.000000
8.930142 353.000000
8.939912 331.000000
8.949682 333.000000
8.959453 322.000000
8.969223 313.000000
8.978994 365.000000
8.988764 313.000000
8.998534 330.000000
9.008305 321.000000
9.018075 343.000000
9.027846 312.000000
9.037616 298.000000
9.047386 310.000000
9.057157 364.000000
9.066927 323.000000
9.076698 367.000000
9.086468 325.000000
9.096238 340.000000
9.106009 359.000000
9.115779 331.000000
9.125550 332.000000
9.135320 353.000000
9.145090 355.000000
9.154861 338.000000
9.164631 356.000000
9.174402 306.000000
9.184172 350.000000
9.193942 366.000000
9.203713 351.000000
9.213483 353.000000
9.223254 322.000000
9.233024 329.000000
9.242794 348.000000
9.252565 367.000000
9.262335 360.000000
9.272106 368.000000
9.281876 376.000000
9.291646 370.000000
9.301417 337.000000
9.311187 340.000000
9.320957 379.000000
9.330728 321.000000
9.340498 352.000000
9.350269 364.000000
9.360039 364.000000
9.369809 379.000000
9.379580 331.000000
9.389350 342.000000
9.399121 367.000000
9.408891 324.000000
9.418661 344.000000
9.428432 336.000000
9.438202 343.000000
9.447973 333.000000
9.457743 359.000000
9.467513 351.000000
9.477284 345.000000
9.487054 317.000000
9.496825 365.000000
9.506595 349.000000
9.516365 324.000000
9.526136 364.000000
9.535906 355.000000
9.545677 367.000000
9.555447 341.000000
9.565217 331.000000
9.574988 349.000000
9.584758 364.000000
9.594529 373.000000
9.604299 340.000000
9.614069 339.000000
9.623840 353.000000
9.633610 377.000000
9.643381 329.000000
9.653151 349.000000
9.662921 348.000000
9.672692 338.000000
9.682462 339.000000
