# Energy(keV)	Counts
0.000000 1047.000000
0.009770 1036.000000
0.019541 1046.000000
0.029311 1030.000000
0.039082 1021.000000
0.048852 995.000000
0.058622 1014.000000
0.068393 990.000000
0.078163 992.000000
0.087934 1022.000000
0.097704 981.000000
0.107474 995.000000
0.117245 973.000000
0.127015 976.000000
0.136786 1018.000000
0.146556 960.000000
0.156326 936.000000
0.166097 1027.000000
0.175867 967.000000
0.185638 941.000000
0.195408 999.000000
0.205178 934.000000
0.214949 989.000000
0.224719 1046.000000
0.234489 949.000000
0.244260 941.000000
0.254030 948.000000
0.263801 1009.000000
0.273571 943.000000
0.283341 968.000000
0.293112 983.000000
0.302882 950.000000
0.312653 926.000000
0.322423 945.000000
0.332193 975.000000
0.341964 990.000000
0.351734 944.000000
0.361505 944.000000
0.371275 952.000000
0.381045 926.000000
0.390816 917.000000
0.400586 939.000000
0.410357 899.000000
0.420127 944.000000
0.429897 888.000000
0.439668 905.000000
0.449438 879.000000
0.459209 960.000000
0.468979 927.000000
0.478749 967.000000
0.488520 934.000000
0.498290 850.000000
0.508061 899.000000
0.517831 923.000000
0.527601 908.000000
0.537372 905.000000
0.547142 869.000000
0.556913 950.000000
0.566683 902.000000
0.576453 927.000000
0.586224 925.000000
0.595994 886.000000
0.605765 869.000000
0.615535 881.000000
0.625305 892.000000
0.635076 885.000000
0.644846 912.000000
0.654617 880.000000
0.664387 886.000000
0.674157 898.000000
0.683928 892.000000
0.693698 892.000000
0.703468 909.000000
0.713239 856.000000
0.723009 940.000000
0.732780 815.000000
0.742550 851.000000
0.752320 872.000000
0.762091 865.000000
0.771861 909.000000
0.781632 876.000000
0.791402 864.000000
0.801172 823.000000
0.810943 806.000000
0.820713 896.000000
0.830484 885.000000
0.840254 844.000000
0.850024 880.000000
0.859795 844.000000
0.869565 851.000000
0.879336 840.000000
0.889106 865.000000
0.898876 846.000000
0.908647 856.000000
0.918417 825.000000
0.928188 838.000000
0.937958 842.000000
0.947728 789.000000
0.957499 873.000000
0.967269 843.000000
0.977040 853.000000
0.986810 766.000000
0.996580 848.000000
1.006351 798.000000
1.016121 832.000000
1.025892 814.000000
1.035662 794.000000
1.045432 810.000000
1.055203 821.000000
1.064973 807.000000
1.074744 779.000000
1.084514 781.000000
1.094284 808.000000
1.104055 848.000000
1.113825 810.000000
1.123596 860.000000
1.133366 761.000000
1.143136 765.000000
1.152907 844.000000
1.162677 806.000000
1.172447 796.000000
1.182218 761.000000
1.191988 808.000000
1.201759 777.000000
1.211529 766.000000
1.221299 767.000000
1.231070 825.000000
1.240840 815.000000
1.250611 802.000000
1.260381 773.000000
1.270151 776.000000
1.279922 817.000000
1.289692 738.000000
1.299463 774.000000
1.309233 788.000000
1.319003 754.000000
1.328774 754.000000
1.338544 786.000000
1.348315 805.000000
1.358085 783.000000
1.367855 777.000000
1.377626 804.000000
1.387396 778.000000
1.397167 724.000000
1.406937 767.000000
1.416707 779.000000
1.426478 764.000000
1.436248 769.000000
1.446019 793.000000
1.455789 750.000000
1.465559 714.000000
1.475330 727.000000
1.485100 734.000000
1.494871 762.000000
1.504641 741.000000
1.514411 729.000000
1.524182 773.000000
1.533952 737.000000
1.543723 775.000000
1.553493 745.000000
1.563263 784.000000
1.573034 722.000000
1.582804 726.000000
1.592574 731.000000
1.602345 690.000000
1.612115 756.000000
1.621886 750.000000
1.631656 703.000000
1.641426 722.000000
1.651197 748.000000
1.660967 720.000000
1.670738 783.000000
1.680508 749.000000
1.690278 755.000000
1.700049 709.000000
1.709819 735.000000
1.719590 710.000000
1.729360 728.000000
1.739130 713.000000
1.748901 666.000000
1.758671 680.000000
1.768442 764.000000
1.778212 763.000000
1.787982 700.000000
1.797753 791.000000
1.807523 697.000000
1.817294 726.000000
1.827064 702.000000
1.836834 700.000000
1.846605 740.000000
1.856375 683.000000
1.866146 736.000000
1.875916 690.000000
1.885686 691.000000
1.895457 668.000000
1.905227 679.000000
1.914998 687.000000
1.924768 706.000000
1.934538 728.000000
1.944309 654.000000
1.954079 663.000000
1.963850 708.000000
1.973620 688.000000
1.983390 672.000000
1.993161 733.000000
2.002931 652.000000
2.012702 758.000000
2.022472 703.000000
2.032242 736.000000
2.042013 696.000000
2.051783 679.000000
2.061553 668.000000
2.071324 656.000000
2.081094 688.000000
2.090865 674.000000
2.100635 689.000000
2.110405 720.000000
2.120176 672.000000
2.129946 689.000000
2.139717 639.000000
2.149487 635.000000
2.159257 671.000000
2.169028 656.000000
2.178798 639.000000
2.188569 674.000000
2.198339 705.000000
2.208109 633.000000
2.217880 642.000000
2.227650 685.000000
2.237421 667.000000
2.247191 635.000000
2.256961 662.000000
2.266732 684.000000
2.276502 621.000000
2.286273 670.000000
2.296043 672.000000
2.305813 659.000000
2.315584 654.000000
2.325354 625.000000
2.335125 683.000000
2.344895 617.000000
2.354665 641.000000
2.364436 629.000000
2.374206 637.000000
2.383977 596.000000
2.393747 619.000000
2.403517 603.000000
2.413288 608.000000
2.423058 631.000000
2.432829 618.000000
2.442599 605.000000
2.452369 665.000000
2.462140 617.000000
2.471910 620.000000
2.481681 588.000000
2.491451 586.000000
2.501221 585.000000
2.510992 599.000000
2.520762 628.000000
2.530532 643.000000
2.540303 608.000000
2.550073 620.000000
2.559844 623.000000
2.569614 625.000000
2.579384 556.000000
2.589155 579.000000
2.598925 616.000000
2.608696 607.000000
2.618466 614.000000
2.628236 628.000000
2.638007 560.000000
2.647777 639.000000
2.657548 557.000000
2.667318 615.000000
2.677088 558.000000
2.686859 598.000000
2.696629 566.000000
2.706400 618.000000
2.716170 570.000000
2.725940 631.000000
2.735711 617.000000
2.745481 579.000000
2.755252 589.000000
2.765022 569.000000
2.774792 572.000000
2.784563 597.000000
2.794333 581.000000
2.804104 584.000000
2.813874 584.000000
2.823644 568.000000
2.833415 562.000000
2.843185 574.000000
2.852956 556.000000
2.862726 581.000000
2.872496 565.000000
2.882267 580.000000
2.892037 603.000000
2.901808 551.000000
2.911578 603.000000
2.921348 542.000000
2.931119 565.000000
2.940889 588.000000
2.950660 584.000000
2.960430 584.000000
2.970200 559.000000
2.979971 573.000000
2.989741 520.000000
2.999511 536.000000
3.009282 559.000000
3.019052 583.000000
3.028823 561.000000
3.038593 566.000000
3.048363 606.000000
3.058134 518.000000
3.067904 555.000000
3.077675 588.000000
3.087445 528.000000
3.097215 503.000000
3.106986 538.000000
3.116756 526.000000
3.126527 541.000000
3.136297 512.000000
3.146067 519.000000
3.155838 566.000000
3.165608 532.000000
3.175379 542.000000
3.185149 540.000000
3.194919 523.000000
3.204690 547.000000
3.214460 526.000000
3.224231 511.000000
3.234001 484.000000
3.243771 517.000000
3.253542 545.000000
3.263312 511.000000
3.273083 523.000000
3.282853 508.000000
3.292623 527.000000
3.302394 547.000000
3.312164 508.000000
3.321935 502.000000
3.331705 515.000000
3.341475 494.000000
3.351246 507.000000
3.361016 515.000000
3.370787 513.000000
3.380557 526.000000
3.390327 466.000000
3.400098 515.000000
3.409868 538.000000
3.419638 535.000000
3.429409 519.000000
3.439179 530.000000
3.448950 466.000000
3.458720 515.000000
3.468490 536.000000
3.478261 534.000000
3.488031 555.000000
3.497802 525.000000
3.507572 560.000000
3.517342 610.000000
3.527113 685.000000
3.536883 700.000000
3.546654 774.000000
3.556424 935.000000
3.566194 1021.000000
3.575965 1275.000000
3.585735 1503.000000
3.595506 1709.000000
3.605276 2077.000000
3.615046 2319.000000
3.624817 2793.000000
3.634587 3154.000000
3.644358 3599.000000
3.654128 3859.000000
3.663898 4233.000000
3.673669 4278.000000
3.683439 4553.000000
3.693210 4363.000000
3.702980 4503.000000
3.712750 4321.000000
3.722521 4095.000000
3.732291 3707.000000
3.742062 3430.000000
3.751832 2963.000000
3.761602 2678.000000
3.771373 2275.000000
3.781143 1964.000000
3.790914 1751.000000
3.800684 1407.000000
3.810454 1254.000000
3.820225 1010.000000
3.829995 859.000000
3.839766 710.000000
3.849536 714.000000
3.859306 624.000000
3.869077 606.000000
3.878847 625.000000
3.888617 613.000000
3.898388 625.000000
3.908158 704.000000
3.917929 743.000000
3.927699 844.000000
3.937469 897.000000
3.947240 894.000000
3.957010 1004.000000
3.966781 1062.000000
3.976551 1110.000000
3.986321 1161.000000
3.996092 1244.000000
4.005862 1258.000000
4.015633 1248.000000
4.025403 1221.000000
4.035173 1214.000000
4.044944 1140.000000
4.054714 1180.000000
4.064485 1015.000000
4.074255 973.000000
4.084025 860.000000
4.093796 814.000000
4.103566 720.000000
4.113337 692.000000
4.123107 602.000000
4.132877 539.000000
4.142648 566.000000
4.152418 505.000000
4.162189 491.000000
4.171959 466.000000
4.181729 450.000000
4.191500 445.000000
4.201270 498.000000
4.211041 460.000000
4.220811 437.000000
4.230581 433.000000
4.240352 401.000000
4.250122 452.000000
4.259893 417.000000
4.269663 454.000000
4.279433 421.000000
4.289204 440.000000
4.298974 447.000000
4.308745 426.000000
4.318515 448.000000
4.328285 505.000000
4.338056 540.000000
4.347826 565.000000
4.357596 565.000000
4.367367 663.000000
4.377137 794.000000
4.386908 1005.000000
4.396678 1114.000000
4.406448 1338.000000
4.416219 1495.000000
4.425989 1931.000000
4.435760 2153.000000
4.445530 2515.000000
4.455300 2803.000000
4.465071 3117.000000
4.474841 3339.000000
4.484612 3715.000000
4.494382 3791.000000
4.504152 3826.000000
4.513923 3992.000000
4.523693 3793.000000
4.533464 3713.000000
4.543234 3422.000000
4.553004 3196.000000
4.562775 2965.000000
4.572545 2640.000000
4.582316 2254.000000
4.592086 2002.000000
4.601856 1626.000000
4.611627 1407.000000
4.621397 1143.000000
4.631168 967.000000
4.640938 836.000000
4.650708 723.000000
4.660479 660.000000
4.670249 541.000000
4.680020 430.000000
4.689790 412.000000
4.699560 438.000000
4.709331 460.000000
4.719101 375.000000
4.728872 411.000000
4.738642 395.000000
4.748412 412.000000
4.758183 402.000000
4.767953 457.000000
4.777723 430.000000
4.787494 469.000000
4.797264 480.000000
4.807035 494.000000
4.816805 521.000000
4.826575 545.000000
4.836346 611.000000
4.846116 686.000000
4.855887 741.000000
4.865657 818.000000
4.875427 795.000000
4.885198 902.000000
4.894968 933.000000
4.904739 1073.000000
4.914509 1010.000000
4.924279 1031.000000
4.934050 1067.000000
4.943820 1100.000000
4.953591 1039.000000
4.963361 1023.000000
4.973131 892.000000
4.982902 864.000000
4.992672 828.000000
5.002443 753.000000
5.012213 730.000000
5.021983 602.000000
5.031754 613.000000
5.041524 519.000000
5.051295 532.000000
5.061065 453.000000
5.070835 440.000000
5.080606 387.000000
5.090376 402.000000
5.100147 403.000000
5.109917 378.000000
5.119687 372.000000
5.129458 377.000000
5.139228 356.000000
5.148999 347.000000
5.158769 366.000000
5.168539 372.000000
5.178310 387.000000
5.188080 365.000000
5.197851 339.000000
5.207621 373.000000
5.217391 363.000000
5.227162 340.000000
5.236932 388.000000
5.246702 378.000000
5.256473 351.000000
5.266243 368.000000
5.276014 341.000000
5.285784 304.000000
5.295554 341.000000
5.305325 353.000000
5.315095 375.000000
5.324866 359.000000
5.334636 344.000000
5.344406 368.000000
5.354177 349.000000
5.363947 329.000000
5.373718 334.000000
5.383488 347.000000
5.393258 354.000000
5.403029 355.000000
5.412799 370.000000
5.422570 364.000000
5.432340 346.000000
5.442110 347.000000
5.451881 345.000000
5.461651 333.000000
5.471422 355.000000
5.481192 327.000000
5.490962 330.000000
5.500733 358.000000
5.510503 338.000000
5.520274 310.000000
5.530044 317.000000
5.539814 370.000000
5.549585 309.000000
5.559355 325.000000
5.569126 339.000000
5.578896 342.000000
5.588666 356.000000
5.598437 325.000000
5.608207 352.000000
5.617978 325.000000
5.627748 300.000000
5.637518 318.000000
5.647289 339.000000
5.657059 318.000000
5.666830 349.000000
5.676600 321.000000
5.686370 314.000000
5.696141 380.000000
5.705911 351.000000
5.715681 349.000000
5.725452 305.000000
5.735222 367.000000
5.744993 333.000000
5.754763 304.000000
5.764533 316.000000
5.774304 342.000000
5.784074 323.000000
5.793845 313.000000
5.803615 339.000000
5.813385 350.000000
5.823156 343.000000
5.832926 305.000000
5.842697 319.000000
5.852467 309.000000
5.862237 334.000000
5.872008 328.000000
5.881778 334.000000
5.891549 312.000000
5.901319 331.000000
5.911089 377.000000
5.920860 320.000000
5.930630 286.000000
5.940401 307.000000
5.950171 321.000000
5.959941 301.000000
5.969712 319.000000
5.979482 328.000000
5.989253 325.000000
5.999023 326.000000
6.008793 318.000000
6.018564 326.000000
6.028334 342.000000
6.038105 296.000000
6.047875 338.000000
6.057645 282.000000
6.067416 296.000000
6.077186 311.000000
6.086957 312.000000
6.096727 295.000000
6.106497 276.000000
6.116268 314.000000
6.126038 299.000000
6.135809 285.000000
6.145579 300.000000
6.155349 343.000000
6.165120 307.000000
6.174890 300.000000
6.184660 331.000000
6.194431 333.000000
6.204201 336.000000
6.213972 350.000000
6.223742 370.000000
6.233512 429.000000
6.243283 539.000000
6.253053 599.000000
6.262824 671.000000
6.272594 893.000000
6.282364 1079.000000
6.292135 1348.000000
6.301905 1692.000000
6.311676 2027.000000
6.321446 2533.000000
6.331216 2861.000000
6.340987 3347.000000
6.350757 3904.000000
6.360528 4311.000000
6.370298 4819.000000
6.380068 4966.000000
6.389839 5274.000000
6.399609 5187.000000
6.409380 5347.000000
6.419150 5222.000000
6.428920 4823.000000
6.438691 4474.000000
6.448461 4202.000000
6.458232 3836.000000
6.468002 3304.000000
6.477772 2843.000000
6.487543 2407.000000
6.497313 1980.000000
6.507084 1573.000000
6.516854 1295.000000
6.526624 1089.000000
6.536395 881.000000
6.546165 741.000000
6.555936 596.000000
6.565706 490.000000
6.575476 374.000000
6.585247 375.000000
6.595017 370.000000
6.604787 294.000000
6.614558 270.000000
6.624328 289.000000
6.634099 297.000000
6.643869 278.000000
6.653639 289.000000
6.663410 293.000000
6.673180 290.000000
6.682951 292.000000
6.692721 265.000000
6.702491 308.000000
6.712262 318.000000
6.722032 290.000000
6.731803 292.000000
6.741573 288.000000
6.751343 272.000000
6.761114 258.000000
6.770884 281.000000
6.780655 303.000000
6.790425 344.000000
6.800195 286.000000
6.809966 272.000000
6.819736 301.000000
6.829507 269.000000
6.839277 267.000000
6.849047 286.000000
6.858818 332.000000
6.868588 318.000000
6.878359 298.000000
6.888129 298.000000
6.897899 318.000000
6.907670 349.000000
6.917440 409.000000
6.927211 421.000000
6.936981 449.000000
6.946751 522.000000
6.956522 499.000000
6.966292 658.000000
6.976063 742.000000
6.985833 822.000000
6.995603 933.000000
7.005374 1011.000000
7.015144 1048.000000
7.024915 1198.000000
7.034685 1167.000000
7.044455 1208.000000
7.054226 1351.000000
7.063996 1259.000000
7.073766 1256.000000
7.083537 1125.000000
7.093307 1115.000000
7.103078 1101.000000
7.112848 892.000000
7.122618 826.000000
7.132389 736.000000
7.142159 712.000000
7.151930 603.000000
7.161700 560.000000
7.171470 461.000000
7.181241 425.000000
7.191011 390.000000
7.200782 351.000000
7.210552 328.000000
7.220322 311.000000
7.230093 323.000000
7.239863 277.000000
7.249634 288.000000
7.259404 276.000000
7.269174 289.000000
7.278945 285.000000
7.288715 276.000000
7.298486 273.000000
7.308256 271.000000
7.318026 297.000000
7.327797 270.000000
7.337567 256.000000
7.347338 246.000000
7.357108 267.000000
7.366878 287.000000
7.376649 262.000000
7.386419 295.000000
7.396190 294.000000
7.405960 282.000000
7.415730 299.000000
7.425501 280.000000
7.435271 316.000000
7.445042 281.000000
7.454812 302.000000
7.464582 279.000000
7.474353 292.000000
7.484123 277.000000
7.493894 294.000000
7.503664 290.000000
7.513434 272.000000
7.523205 279.000000
7.532975 285.000000
7.542745 300.000000
7.552516 266.000000
7.562286 245.000000
7.572057 267.000000
7.581827 293.000000
7.591597 269.000000
7.601368 268.000000
7.611138 250.000000
7.620909 256.000000
7.630679 282.000000
7.640449 241.000000
7.650220 301.000000
7.659990 288.000000
7.669761 286.000000
7.679531 229.000000
7.689301 265.000000
7.699072 281.000000
7.708842 303.000000
7.718613 296.000000
7.728383 291.000000
7.738153 286.000000
7.747924 306.000000
7.757694 269.000000
7.767465 271.000000
7.777235 278.000000
7.787005 261.000000
7.796776 320.000000
7.806546 251.000000
7.816317 284.000000
7.826087 288.000000
7.835857 289.000000
7.845628 259.000000
7.855398 255.000000
7.865169 284.000000
7.874939 289.000000
7.884709 255.000000
7.894480 276.000000
7.904250 268.000000
7.914021 276.000000
7.923791 277.000000
7.933561 268.000000
7.943332 282.000000
7.953102 286.000000
7.962872 285.000000
7.972643 282.000000
7.982413 268.000000
7.992184 302.000000
8.001954 287.000000
8.011724 305.000000
8.021495 282.000000
8.031265 282.000000
8.041036 287.000000
8.050806 269.000000
8.060576 272.000000
8.070347 291.000000
8.080117 282.000000
8.089888 292.000000
8.099658 306.000000
8.109428 264.000000
8.119199 328.000000
8.128969 298.000000
8.138740 309.000000
8.148510 296.000000
8.158280 295.000000
8.168051 297.000000
8.177821 295.000000
8.187592 321.000000
8.197362 291.000000
8.207132 276.000000
8.216903 291.000000
8.226673 286.000000
8.236444 291.000000
8.246214 268.000000
8.255984 306.000000
8.265755 286.000000
8.275525 305.000000
8.285296 304.000000
8.295066 290.000000
8.304836 319.000000
8.314607 311.000000
8.324377 295.000000
8.334148 304.000000
8.343918 319.000000
8.353688 282.000000
8.363459 334.000000
8.373229 287.000000
8.383000 297.000000
8.392770 269.000000
8.402540 295.000000
8.412311 297.000000
8.422081 280.000000
8.431851 296.000000
8.441622 314.000000
8.451392 282.000000
8.461163 307.000000
8.470933 270.000000
8.480703 297.000000
8.490474 340.000000
8.500244 295.000000
8.510015 291.000000
8.519785 281.000000
8.529555 294.000000
8.539326 306.000000
8.549096 298.000000
8.558867 311.000000
8.568637 318.000000
8.578407 333.000000
8.588178 306.000000
8.597948 305.000000
8.607719 293.000000
8.617489 320.000000
8.627259 311.000000
8.637030 316.000000
8.646800 312.000000
8.656571 312.000000
8.666341 318.000000
8.676111 319.000000
8.685882 337.000000
8.695652 299.000000
8.705423 303.000000
8.715193 300.000000
8.724963 319.000000
8.734734 327.000000
8.744504 317.000000
8.754275 313.000000
8.764045 349.000000
8.773815 301.000000
8.783586 336.000000
8.793356 385.000000
8.803127 343.000000
8.812897 311.000000
8.822667 330.000000
8.832438 346.000000
8.842208 321.000000
8.851979 324.000000
8.861749 304.000000
8.871519 361.000000
8.881290 342.000000
8.891060 301.000000
8.900830 318.000000
8.910601 332.000000
8.920371 323.000000
8.930142 330.000000
8.939912 279.000000
8.949682 318.000000
8.959453 347.000000
8.969223 316.000000
8.978994 331.000000
8.988764 326.000000
8.998534 310.000000
9.008305 305.000000
9.018075 359.000000
9.027846 300.000000
9.037616 294.000000
9.047386 375.000000
9.057157 302.000000
9.066927 335.000000
9.076698 381.000000
9.086468 350.000000
9.096238 316.000000
9.106009 344.000000
9.115779 310.000000
9.125550 329.000000
9.135320 328.000000
9.145090 328.000000
9.154861 344.000000
9.164631 305.000000
9.174402 321.000000
9.184172 333.000000
9.193942 329.000000
9.203713 298.000000
9.213483 353.000000
9.223254 353.000000
9.233024 296.000000
9.242794 394.000000
9.252565 324.000000
9.262335 382.000000
9.272106 311.000000
9.281876 358.000000
9.291646 327.000000
9.301417 354.000000
9.311187 340.000000
9.320957 342.000000
9.330728 341.000000
9.340498 374.000000
9.350269 330.000000
9.360039 347.000000
9.369809 350.000000
9.379580 332.000000
9.389350 335.000000
9.399121 342.000000
9.408891 327.000000
9.418661 344.000000
9.428432 331.000000
9.438202 326.000000
9.447973 363.000000
9.457743 330.000000
9.467513 378.000000
9.477284 322.000000
9.487054 336.000000
9.496825 342.000000
9.506595 358.000000
9.516365 373.000000
9.526136 359.000000
9.535906 359.000000
9.545677 304.000000
9.555447 339.000000
9.565217 347.000000
9.574988 367.000000
9.584758 351.000000
9.594529 370.000000
9.604299 366.000000
9.614069 357.000000
9.623840 351.000000
9.633610 335.000000
9.643381 300.000000
9.653151 359.000000
9.662921 366.000000
9.672692 356.000000
9.682462 333.000000
9.692233 375.000000
