# Energy(keV)	Counts
0.000000 1005.000000
0.009770 988.000000
0.019541 942.000000
0.029311 974.000000
0.039082 967.000000
0.048852 1010.000000
0.058622 1013.000000
0.068393 957.000000
0.078163 986.000000
0.087934 972.000000
0.097704 988.000000
0.107474 971.000000
0.117245 958.000000
0.127015 966.000000
0.136786 981.000000
0.146556 952.000000
0.156326 971.000000
0.166097 999.000000
0.175867 945.000000
0.185638 1029.000000
0.195408 1021.000000
0.205178 966.000000
0.214949 1007.000000
0.224719 975.000000
0.234489 986.000000
0.244260 974.000000
0.254030 976.000000
0.263801 932.000000
0.273571 928.000000
0.283341 991.000000
0.293112 1017.000000
0.302882 897.000000
0.312653 1021.000000
0.322423 900.000000
0.332193 893.000000
0.341964 925.000000
0.351734 943.000000
0.361505 912.000000
0.371275 924.000000
0.381045 923.000000
0.390816 912.000000
0.400586 966.000000
0.410357 964.000000
0.420127 902.000000
0.429897 914.000000
0.439668 933.000000
0.449438 922.000000
0.459209 970.000000
0.468979 872.000000
0.478749 937.000000
0.488520 972.000000
0.498290 958.000000
0.508061 888.000000
0.517831 899.000000
0.527601 859.000000
0.537372 929.000000
0.547142 881.000000
0.556913 835.000000
0.566683 916.000000
0.576453 956.000000
0.586224 880.000000
0.595994 903.000000
0.605765 968.000000
0.615535 863.000000
0.625305 941.000000
0.635076 918.000000
0.644846 913.000000
0.654617 903.000000
0.664387 869.000000
0.674157 824.000000
0.683928 831.000000
0.693698 869.000000
0.703468 877.000000
0.713239 905.000000
0.723009 864.000000
0.732780 854.000000
0.742550 856.000000
0.752320 878.000000
0.762091 855.000000
0.771861 847.000000
0.781632 820.000000
0.791402 882.000000
0.801172 860.000000
0.810943 859.000000
0.820713 888.000000
0.830484 835.000000
0.840254 866.000000
0.850024 819.000000
0.859795 821.000000
0.869565 895.000000
0.879336 859.000000
0.889106 864.000000
0.898876 809.000000
0.908647 864.000000
0.918417 822.000000
0.928188 828.000000
0.937958 823.000000
0.947728 835.000000
0.957499 818.000000
0.967269 848.000000
0.977040 811.000000
0.986810 884.000000
0.996580 808.000000
1.006351 888.000000
1.016121 820.000000
1.025892 817.000000
1.035662 806.000000
1.045432 788.000000
1.055203 752.000000
1.064973 777.000000
1.074744 828.000000
1.084514 781.000000
1.094284 786.000000
1.104055 827.000000
1.113825 839.000000
1.123596 809.000000
1.133366 819.000000
1.143136 801.000000
1.152907 803.000000
1.162677 793.000000
1.172447 794.000000
1.182218 833.000000
1.191988 771.000000
1.201759 792.000000
1.211529 835.000000
1.221299 782.000000
1.231070 794.000000
1.240840 755.000000
1.250611 831.000000
1.260381 788.000000
1.270151 830.000000
1.279922 789.000000
1.289692 827.000000
1.299463 787.000000
1.309233 762.000000
1.319003 782.000000
1.328774 756.000000
1.338544 794.000000
1.348315 830.000000
1.358085 781.000000
1.367855 732.000000
1.377626 736.000000
1.387396 731.000000
1.397167 755.000000
1.406937 733.000000
1.416707 736.000000
1.426478 717.000000
1.436248 774.000000
1.446019 741.000000
1.455789 748.000000
1.465559 704.000000
1.475330 730.000000
1.485100 793.000000
1.494871 750.000000
1.504641 743.000000
1.514411 726.000000
1.524182 699.000000
1.533952 779.000000
1.543723 771.000000
1.553493 779.000000
1.563263 736.000000
1.573034 747.000000
1.582804 722.000000
1.592574 715.000000
1.602345 769.000000
1.612115 694.000000
1.621886 708.000000
1.631656 718.000000
1.641426 766.000000
1.651197 705.000000
1.660967 727.000000
1.670738 727.000000
1.680508 709.000000
1.690278 714.000000
1.700049 717.000000
1.709819 733.000000
1.719590 725.000000
1.729360 711.000000
1.739130 683.000000
1.748901 741.000000
1.758671 748.000000
1.768442 750.000000
1.778212 688.000000
1.787982 753.000000
1.797753 763.000000
1.807523 727.000000
1.817294 686.000000
1.827064 677.000000
1.836834 724.000000
1.846605 709.000000
1.856375 712.000000
1.866146 657.000000
1.875916 724.000000
1.885686 671.000000
1.895457 714.000000
1.905227 685.000000
1.914998 674.000000
1.924768 710.000000
1.934538 741.000000
1.944309 626.000000
1.954079 697.000000
1.963850 647.000000
1.973620 726.000000
1.983390 687.000000
1.993161 679.000000
2.002931 681.000000
2.012702 646.000000
2.022472 633.000000
2.032242 667.000000
2.042013 641.000000
2.051783 644.000000
2.061553 644.000000
2.071324 677.000000
2.081094 653.000000
2.090865 642.000000
2.100635 639.000000
2.110405 643.000000
2.120176 655.000000
2.129946 650.000000
2.139717 643.000000
2.149487 676.000000
2.159257 665.000000
2.169028 638.000000
2.178798 626.000000
2.188569 679.000000
2.198339 656.000000
2.208109 664.000000
2.217880 649.000000
2.227650 593.000000
2.237421 699.000000
2.247191 675.000000
2.256961 617.000000
2.266732 627.000000
2.276502 627.000000
2.286273 640.000000
2.296043 588.000000
2.305813 604.000000
2.315584 667.000000
2.325354 673.000000
2.335125 638.000000
2.344895 685.000000
2.354665 648.000000
2.364436 642.000000
2.374206 618.000000
2.383977 635.000000
2.393747 637.000000
2.403517 603.000000
2.413288 621.000000
2.423058 616.000000
2.432829 644.000000
2.442599 584.000000
2.452369 624.000000
2.462140 637.000000
2.471910 635.000000
2.481681 642.000000
2.491451 602.000000
2.501221 676.000000
2.510992 582.000000
2.520762 660.000000
2.530532 623.000000
2.540303 623.000000
2.550073 579.000000
2.559844 583.000000
2.569614 630.000000
2.579384 594.000000
2.589155 603.000000
2.598925 637.000000
2.608696 597.000000
2.618466 601.000000
2.628236 566.000000
2.638007 655.000000
2.647777 599.000000
2.657548 619.000000
2.667318 591.000000
2.677088 566.000000
2.686859 559.000000
2.696629 583.000000
2.706400 604.000000
2.716170 603.000000
2.725940 549.000000
2.735711 599.000000
2.745481 583.000000
2.755252 536.000000
2.765022 586.000000
2.774792 621.000000
2.784563 634.000000
2.794333 615.000000
2.804104 587.000000
2.813874 579.000000
2.823644 556.000000
2.833415 552.000000
2.843185 608.000000
2.852956 545.000000
2.862726 596.000000
2.872496 608.000000
2.882267 505.000000
2.892037 525.000000
2.901808 554.000000
2.911578 544.000000
2.921348 552.000000
2.931119 571.000000
2.940889 556.000000
2.950660 517.000000
2.960430 572.000000
2.970200 563.000000
2.979971 602.000000
2.989741 542.000000
2.999511 564.000000
3.009282 535.000000
3.019052 581.000000
3.028823 615.000000
3.038593 562.000000
3.048363 528.000000
3.058134 561.000000
3.067904 526.000000
3.077675 545.000000
3.087445 562.000000
3.097215 541.000000
3.106986 537.000000
3.116756 495.000000
3.126527 529.000000
3.136297 528.000000
3.146067 541.000000
3.155838 544.000000
3.165608 515.000000
3.175379 542.000000
3.185149 549.000000
3.194919 540.000000
3.204690 569.000000
3.214460 554.000000
3.224231 511.000000
3.234001 560.000000
3.243771 477.000000
3.253542 558.000000
3.263312 514.000000
3.273083 549.000000
3.282853 527.000000
3.292623 501.000000
3.302394 525.000000
3.312164 499.000000
3.321935 541.000000
3.331705 540.000000
3.341475 508.000000
3.351246 491.000000
3.361016 493.000000
3.370787 552.000000
3.380557 515.000000
3.390327 496.000000
3.400098 511.000000
3.409868 544.000000
3.419638 509.000000
3.429409 484.000000
3.439179 505.000000
3.448950 519.000000
3.458720 523.000000
3.468490 507.000000
3.478261 524.000000
3.488031 533.000000
3.497802 526.000000
3.507572 529.000000
3.517342 475.000000
3.527113 514.000000
3.536883 485.000000
3.546654 502.000000
3.556424 501.000000
3.566194 487.000000
3.575965 498.000000
3.585735 500.000000
3.595506 488.000000
3.605276 491.000000
3.615046 529.000000
3.624817 503.000000
3.634587 526.000000
3.644358 486.000000
3.654128 534.000000
3.663898 524.000000
3.673669 512.000000
3.683439 447.000000
3.693210 498.000000
3.702980 526.000000
3.712750 506.000000
3.722521 488.000000
3.732291 483.000000
3.742062 494.000000
3.751832 510.000000
3.761602 463.000000
3.771373 481.000000
3.781143 488.000000
3.790914 447.000000
3.800684 453.000000
3.810454 491.000000
3.820225 464.000000
3.829995 471.000000
3.839766 467.000000
3.849536 439.000000
3.859306 493.000000
3.869077 464.000000
3.878847 485.000000
3.888617 480.000000
3.898388 467.000000
3.908158 473.000000
3.917929 489.000000
3.927699 485.000000
3.937469 505.000000
3.947240 453.000000
3.957010 497.000000
3.966781 445.000000
3.976551 463.000000
3.986321 466.000000
3.996092 468.000000
4.005862 446.000000
4.015633 453.000000
4.025403 444.000000
4.035173 480.000000
4.044944 485.000000
4.054714 477.000000
4.064485 454.000000
4.074255 458.000000
4.084025 465.000000
4.093796 471.000000
4.103566 456.000000
4.113337 474.000000
4.123107 434.000000
4.132877 398.000000
4.142648 454.000000
4.152418 466.000000
4.162189 427.000000
4.171959 407.000000
4.181729 425.000000
4.191500 463.000000
4.201270 451.000000
4.211041 480.000000
4.220811 498.000000
4.230581 431.000000
4.240352 456.000000
4.250122 437.000000
4.259893 436.000000
4.269663 456.000000
4.279433 434.000000
4.289204 472.000000
4.298974 438.000000
4.308745 406.000000
4.318515 390.000000
4.328285 429.000000
4.338056 465.000000
4.347826 454.000000
4.357596 460.000000
4.367367 454.000000
4.377137 401.000000
4.386908 461.000000
4.396678 415.000000
4.406448 421.000000
4.416219 413.000000
4.425989 440.000000
4.435760 445.000000
4.445530 411.000000
4.455300 448.000000
4.465071 418.000000
4.474841 393.000000
4.484612 436.000000
4.494382 411.000000
4.504152 440.000000
4.513923 428.000000
4.523693 444.000000
4.533464 409.000000
4.543234 411.000000
4.553004 396.000000
4.562775 417.000000
4.572545 403.000000
4.582316 405.000000
4.592086 363.000000
4.601856 429.000000
4.611627 415.000000
4.621397 421.000000
4.631168 402.000000
4.640938 425.000000
4.650708 376.000000
4.660479 446.000000
4.670249 421.000000
4.680020 405.000000
4.689790 406.000000
4.699560 429.000000
4.709331 394.000000
4.719101 370.000000
4.728872 385.000000
4.738642 384.000000
4.748412 417.000000
4.758183 359.000000
4.767953 395.000000
4.777723 372.000000
4.787494 397.000000
4.797264 370.000000
4.807035 399.000000
4.816805 415.000000
4.826575 374.000000
4.836346 403.000000
4.846116 391.000000
4.855887 399.000000
4.865657 376.000000
4.875427 369.000000
4.885198 363.000000
4.894968 423.000000
4.904739 361.000000
4.914509 383.000000
4.924279 380.000000
4.934050 390.000000
4.943820 401.000000
4.953591 369.000000
4.963361 393.000000
4.973131 386.000000
4.982902 398.000000
4.992672 344.000000
5.002443 405.000000
5.012213 385.000000
5.021983 383.000000
5.031754 374.000000
5.041524 379.000000
5.051295 360.000000
5.061065 368.000000
5.070835 387.000000
5.080606 371.000000
5.090376 387.000000
5.100147 346.000000
5.109917 378.000000
5.119687 342.000000
5.129458 404.000000
5.139228 364.000000
5.148999 379.000000
5.158769 391.000000
5.168539 360.000000
5.178310 370.000000
5.188080 365.000000
5.197851 363.000000
5.207621 351.000000
5.217391 373.000000
5.227162 411.000000
5.236932 386.000000
5.246702 436.000000
5.256473 495.000000
5.266243 556.000000
5.276014 625.000000
5.285784 717.000000
5.295554 928.000000
5.305325 1044.000000
5.315095 1290.000000
5.324866 1510.000000
5.334636 1842.000000
5.344406 2068.000000
5.354177 2356.000000
5.363947 2697.000000
5.373718 2966.000000
5.383488 3140.000000
5.393258 3391.000000
5.403029 3584.000000
5.412799 3439.000000
5.422570 3597.000000
5.432340 3425.000000
5.442110 3189.000000
5.451881 3130.000000
5.461651 2848.000000
5.471422 2537.000000
5.481192 2233.000000
5.490962 1923.000000
5.500733 1640.000000
5.510503 1316.000000
5.520274 1182.000000
5.530044 999.000000
5.539814 795.000000
5.549585 667.000000
5.559355 613.000000
5.569126 534.000000
5.578896 439.000000
5.588666 451.000000
5.598437 413.000000
5.608207 372.000000
5.617978 344.000000
5.627748 348.000000
5.637518 353.000000
5.647289 347.000000
5.657059 335.000000
5.666830 349.000000
5.676600 346.000000
5.686370 334.000000
5.696141 327.000000
5.705911 396.000000
5.715681 346.000000
5.725452 395.000000
5.735222 435.000000
5.744993 510.000000
5.754763 549.000000
5.764533 658.000000
5.774304 838.000000
5.784074 928.000000
5.793845 1101.000000
5.803615 1373.000000
5.813385 1609.000000
5.823156 1950.000000
5.832926 2195.000000
5.842697 2495.000000
5.852467 2898.000000
5.862237 3099.000000
5.872008 3404.000000
5.881778 3456.000000
5.891549 3673.000000
5.901319 3813.000000
5.911089 3821.000000
5.920860 3759.000000
5.930630 3585.000000
5.940401 3375.000000
5.950171 3132.000000
5.959941 2846.000000
5.969712 2568.000000
5.979482 2286.000000
5.989253 1965.000000
5.999023 1663.000000
6.008793 1410.000000
6.018564 1206.000000
6.028334 955.000000
6.038105 779.000000
6.047875 715.000000
6.057645 589.000000
6.067416 549.000000
6.077186 478.000000
6.086957 385.000000
6.096727 367.000000
6.106497 367.000000
6.116268 325.000000
6.126038 309.000000
6.135809 325.000000
6.145579 299.000000
6.155349 326.000000
6.165120 314.000000
6.174890 308.000000
6.184660 309.000000
6.194431 296.000000
6.204201 340.000000
6.213972 379.000000
6.223742 385.000000
6.233512 467.000000
6.243283 529.000000
6.253053 618.000000
6.262824 704.000000
6.272594 926.000000
6.282364 1084.000000
6.292135 1406.000000
6.301905 1653.000000
6.311676 2044.000000
6.321446 2439.000000
6.331216 2896.000000
6.340987 3451.000000
6.350757 3935.000000
6.360528 4304.000000
6.370298 4745.000000
6.380068 5164.000000
6.389839 5448.000000
6.399609 5545.000000
6.409380 5605.000000
6.419150 5472.000000
6.428920 5239.000000
6.438691 5143.000000
6.448461 4668.000000
6.458232 4385.000000
6.468002 3834.000000
6.477772 3397.000000
6.487543 2991.000000
6.497313 2618.000000
6.507084 2126.000000
6.516854 1810.000000
6.526624 1581.000000
6.536395 1345.000000
6.546165 1110.000000
6.555936 953.000000
6.565706 818.000000
6.575476 641.000000
6.585247 585.000000
6.595017 498.000000
6.604787 444.000000
6.614558 390.000000
6.624328 394.000000
6.634099 333.000000
6.643869 331.000000
6.653639 309.000000
6.663410 328.000000
6.673180 266.000000
6.682951 303.000000
6.692721 313.000000
6.702491 312.000000
6.712262 299.000000
6.722032 301.000000
6.731803 249.000000
6.741573 292.000000
6.751343 256.000000
6.761114 264.000000
6.770884 267.000000
6.780655 296.000000
6.790425 277.000000
6.800195 287.000000
6.809966 256.000000
6.819736 311.000000
6.829507 313.000000
6.839277 262.000000
6.849047 289.000000
6.858818 274.000000
6.868588 270.000000
6.878359 293.000000
6.888129 282.000000
6.897899 320.000000
6.907670 342.000000
6.917440 386.000000
6.927211 428.000000
6.936981 443.000000
6.946751 497.000000
6.956522 522.000000
6.966292 667.000000
6.976063 726.000000
6.985833 843.000000
6.995603 818.000000
7.005374 1030.000000
7.015144 1064.000000
7.024915 1152.000000
7.034685 1239.000000
7.044455 1242.000000
7.054226 1300.000000
7.063996 1223.000000
7.073766 1290.000000
7.083537 1195.000000
7.093307 1135.000000
7.103078 1089.000000
7.112848 970.000000
7.122618 880.000000
7.132389 807.000000
7.142159 711.000000
7.151930 627.000000
7.161700 545.000000
7.171470 477.000000
7.181241 443.000000
7.191011 383.000000
7.200782 324.000000
7.210552 326.000000
7.220322 307.000000
7.230093 326.000000
7.239863 310.000000
7.249634 292.000000
7.259404 307.000000
7.269174 272.000000
7.278945 322.000000
7.288715 294.000000
7.298486 339.000000
7.308256 349.000000
7.318026 385.000000
7.327797 440.000000
7.337567 481.000000
7.347338 604.000000
7.357108 699.000000
7.366878 862.000000
7.376649 1072.000000
7.386419 1333.000000
7.396190 1459.000000
7.405960 1806.000000
7.415730 2132.000000
7.425501 2252.000000
7.435271 2493.000000
7.445042 2722.000000
7.454812 2868.000000
7.464582 3000.000000
7.474353 2973.000000
7.484123 3052.000000
7.493894 2984.000000
7.503664 2836.000000
7.513434 2623.000000
7.523205 2443.000000
7.532975 2174.000000
7.542745 2011.000000
7.552516 1650.000000
7.562286 1400.000000
7.572057 1179.000000
7.581827 1032.000000
7.591597 852.000000
7.601368 699.000000
7.611138 640.000000
7.620909 552.000000
7.630679 473.000000
7.640449 383.000000
7.650220 342.000000
7.659990 323.000000
7.669761 310.000000
7.679531 307.000000
7.689301 274.000000
7.699072 285.000000
7.708842 295.000000
7.718613 300.000000
7.728383 279.000000
7.738153 268.000000
7.747924 296.000000
7.757694 295.000000
7.767465 281.000000
7.777235 277.000000
7.787005 271.000000
7.796776 268.000000
7.806546 274.000000
7.816317 300.000000
7.826087 280.000000
7.835857 289.000000
7.845628 301.000000
7.855398 274.000000
7.865169 281.000000
7.874939 306.000000
7.884709 295.000000
7.894480 264.000000
7.904250 266.000000
7.914021 273.000000
7.923791 248.000000
7.933561 283.000000
7.943332 302.000000
7.953102 305.000000
7.962872 282.000000
7.972643 263.000000
7.982413 290.000000
7.992184 284.000000
8.001954 294.000000
8.011724 289.000000
8.021495 297.000000
8.031265 304.000000
8.041036 261.000000
8.050806 265.000000
8.060576 273.000000
8.070347 297.000000
8.080117 282.000000
8.089888 293.000000
8.099658 319.000000
8.109428 323.000000
8.119199 345.000000
8.128969 346.000000
8.138740 372.000000
8.148510 381.000000
8.158280 425.000000
8.168051 421.000000
8.177821 524.000000
8.187592 552.000000
8.197362 608.000000
8.207132 688.000000
8.216903 739.000000
8.226673 753.000000
8.236444 796.000000
8.246214 812.000000
8.255984 872.000000
8.265755 886.000000
8.275525 895.000000
8.285296 812.000000
8.295066 803.000000
8.304836 751.000000
8.314607 726.000000
8.324377 610.000000
8.334148 608.000000
8.343918 558.000000
8.353688 506.000000
8.363459 491.000000
8.373229 422.000000
8.383000 404.000000
8.392770 394.000000
8.402540 391.000000
8.412311 354.000000
8.422081 325.000000
8.431851 325.000000
8.441622 314.000000
8.451392 292.000000
8.461163 288.000000
8.470933 338.000000
8.480703 308.000000
8.490474 310.000000
8.500244 295.000000
8.510015 279.000000
8.519785 332.000000
8.529555 302.000000
8.539326 277.000000
8.549096 297.000000
8.558867 317.000000
8.568637 331.000000
8.578407 291.000000
8.588178 316.000000
8.597948 319.000000
8.607719 286.000000
8.617489 320.000000
8.627259 303.000000
8.637030 314.000000
8.646800 269.000000
8.656571 299.000000
8.666341 327.000000
8.676111 338.000000
8.685882 332.000000
8.695652 303.000000
8.705423 318.000000
8.715193 312.000000
8.724963 296.000000
8.734734 331.000000
8.744504 327.000000
8.754275 349.000000
8.764045 328.000000
8.773815 283.000000
8.783586 319.000000
8.793356 302.000000
8.803127 305.000000
8.812897 301.000000
8.822667 315.000000
8.832438 313.000000
8.842208 305.000000
8.851979 334.000000
8.861749 327.000000
8.871519 341.000000
8.881290 314.000000
8.891060 351.000000
8.900830 357.000000
8.910601 305.000000
8.920371 340.000000
8.930142 338.000000
8.939912 282.000000
8.949682 306.000000
8.959453 320.000000
8.969223 360.000000
8.978994 331.000000
8.988764 330.000000
8.998534 362.000000
9.008305 316.000000
9.018075 338.000000
9.027846 332.000000
9.037616 341.000000
9.047386 334.000000
9.057157 313.000000
9.066927 316.000000
9.076698 322.000000
9.086468 323.000000
9.096238 351.000000
9.106009 332.000000
9.115779 342.000000
9.125550 327.000000
9.135320 356.000000
9.145090 352.000000
9.154861 329.000000
9.164631 307.000000
9.174402 316.000000
9.184172 323.000000
9.193942 349.000000
9.203713 331.000000
9.213483 330.000000
9.223254 309.000000
9.233024 329.000000
9.242794 323.000000
9.252565 341.000000
9.262335 322.000000
9.272106 332.000000
9.281876 333.000000
9.291646 351.000000
9.301417 337.000000
9.311187 319.000000
9.320957 344.000000
9.330728 373.000000
9.340498 359.000000
9.350269 354.000000
9.360039 333.000000
9.369809 313.000000
9.379580 362.000000
9.389350 345.000000
9.399121 332.000000
9.408891 347.000000
9.418661 343.000000
9.428432 330.000000
9.438202 337.000000
9.447973 348.000000
9.457743 365.000000
9.467513 357.000000
9.477284 331.000000
9.487054 345.000000
9.496825 353.000000
9.506595 341.000000
9.516365 334.000000
9.526136 369.000000
9.535906 375.000000
9.545677 309.000000
9.555447 349.000000
9.565217 351.000000
9.574988 366.000000
9.584758 376.000000
9.594529 363.000000
9.604299 346.000000
9.614069 312.000000
9.623840 351.000000
9.633610 377.000000
9.643381 364.000000
9.653151 331.000000
9.662921 363.000000
9.672692 329.000000
9.682462 371.000000
9.692233 329.000000
